SpectraSuite Data File
++++++++++++++++++++++++++++++++++++
Date: Tue Jun 26 11:04:51 CST 2012
User: Administrator
Dark Spectrum Present: Yes
Reference Spectrum Present: Yes
Number of Sampled Component Spectra: 1
Spectrometers: USB4F05559
Integration Time (usec): 48000 (USB4F05559)
Spectra Averaged: 5 (USB4F05559)
Boxcar Smoothing: 5 (USB4F05559)
Correct for Electrical Dark: No (USB4F05559)
Strobe/Lamp Enabled: No (USB4F05559)
Correct for Detector Non-linearity: No (USB4F05559)
Correct for Stray Light: No (USB4F05559)
Number of Pixels in Processed Spectrum: 3648
>>>>>Begin Processed Spectral Data<<<<<
176.64	-48.718
176.86	-48.718
177.08	-48.718
177.30	55.319
177.52	750.000
177.74	-692.784
177.96	6190.909
178.18	926.744
178.40	458.095
178.62	420.816
178.84	330.539
179.06	291.627
179.28	247.358
179.50	158.464
179.72	116.080
179.94	85.266
180.16	68.724
180.38	63.459
180.60	53.320
180.82	41.773
181.04	37.561
181.26	32.813
181.48	28.051
181.70	26.564
181.92	27.432
182.14	29.890
182.36	29.189
182.58	26.100
182.80	25.505
183.02	22.523
183.24	21.627
183.46	22.441
183.68	18.591
183.90	17.972
184.12	20.006
184.34	18.004
184.56	13.113
184.78	16.704
185.00	19.017
185.21	16.818
185.43	17.156
185.65	15.927
185.87	14.128
186.09	18.799
186.31	18.156
186.53	15.666
186.75	16.384
186.97	19.989
187.19	17.576
187.41	16.237
187.63	16.302
187.85	14.985
188.07	16.591
188.29	15.778
188.51	10.242
188.73	12.479
188.95	13.118
189.17	14.842
189.39	13.872
189.61	13.139
189.83	15.059
190.05	13.045
190.27	17.148
190.49	17.181
190.70	17.045
190.92	18.608
191.14	17.682
191.36	18.201
191.58	16.860
191.80	17.536
192.02	16.011
192.24	16.084
192.46	19.359
192.68	15.053
192.90	13.874
193.12	17.106
193.34	16.167
193.56	19.015
193.78	20.389
193.99	22.175
194.21	21.133
194.43	21.868
194.65	20.817
194.87	18.405
195.09	20.966
195.31	22.083
195.53	21.453
195.75	22.372
195.97	21.589
196.19	17.349
196.41	18.891
196.63	19.861
196.84	19.813
197.06	18.984
197.28	20.328
197.50	17.652
197.72	16.464
197.94	15.994
198.16	16.914
198.38	17.061
198.60	18.985
198.82	15.365
199.04	16.081
199.25	16.852
199.47	17.527
199.69	15.540
199.91	20.146
200.13	22.193
200.35	21.273
200.57	18.567
200.79	17.083
201.01	17.666
201.23	18.214
201.44	15.262
201.66	18.289
201.88	17.758
202.10	21.660
202.32	17.921
202.54	15.581
202.76	16.134
202.98	19.021
203.19	21.038
203.41	23.517
203.63	24.562
203.85	24.115
204.07	23.893
204.29	21.150
204.51	17.971
204.73	18.734
204.94	19.740
205.16	21.071
205.38	18.729
205.60	17.325
205.82	14.001
206.04	13.195
206.26	14.723
206.48	12.339
206.69	13.319
206.91	14.435
207.13	14.827
207.35	14.303
207.57	12.914
207.79	16.201
208.01	15.686
208.22	18.326
208.44	18.267
208.66	18.472
208.88	19.430
209.10	23.245
209.32	19.892
209.54	16.294
209.75	15.831
209.97	17.182
210.19	13.744
210.41	14.660
210.63	15.493
210.85	17.402
211.06	16.806
211.28	17.467
211.50	15.044
211.72	17.721
211.94	21.430
212.16	21.826
212.38	17.913
212.59	19.133
212.81	18.404
213.03	16.024
213.25	14.851
213.47	16.530
213.68	13.800
213.90	13.538
214.12	13.294
214.34	12.899
214.56	12.106
214.78	13.141
214.99	12.726
215.21	13.651
215.43	13.341
215.65	13.292
215.87	12.477
216.09	14.023
216.30	16.257
216.52	16.601
216.74	16.329
216.96	18.356
217.18	16.412
217.39	18.455
217.61	15.514
217.83	15.097
218.05	13.235
218.27	13.230
218.48	14.138
218.70	13.651
218.92	14.014
219.14	14.642
219.36	13.173
219.57	16.013
219.79	12.073
220.01	13.562
220.23	14.087
220.45	14.854
220.66	13.199
220.88	12.084
221.10	11.669
221.32	11.199
221.54	9.458
221.75	9.779
221.97	8.130
222.19	9.691
222.41	9.971
222.62	8.912
222.84	8.834
223.06	9.787
223.28	9.096
223.50	7.634
223.71	7.204
223.93	7.821
224.15	7.557
224.37	7.438
224.58	7.236
224.80	5.900
225.02	5.423
225.24	5.214
225.46	4.893
225.67	4.712
225.89	5.002
226.11	4.837
226.33	4.645
226.54	4.788
226.76	5.795
226.98	6.174
227.20	6.799
227.41	7.590
227.63	7.870
227.85	7.177
228.07	7.430
228.28	7.197
228.50	6.932
228.72	7.245
228.94	6.843
229.15	6.341
229.37	6.099
229.59	5.578
229.81	5.349
230.02	5.010
230.24	5.537
230.46	5.399
230.68	5.402
230.89	5.423
231.11	5.198
231.33	5.464
231.55	5.312
231.76	5.260
231.98	5.539
232.20	5.516
232.41	5.389
232.63	5.235
232.85	5.041
233.07	5.137
233.28	5.155
233.50	5.228
233.72	4.995
233.94	4.893
234.15	4.869
234.37	4.718
234.59	4.668
234.80	4.679
235.02	4.587
235.24	4.703
235.46	4.649
235.67	4.740
235.89	4.546
236.11	4.538
236.32	4.525
236.54	4.512
236.76	4.562
236.98	4.359
237.19	4.231
237.41	4.115
237.63	4.105
237.84	4.029
238.06	3.834
238.28	3.873
238.50	3.875
238.71	3.897
238.93	3.953
239.15	3.847
239.36	3.971
239.58	3.989
239.80	3.965
240.01	3.885
240.23	3.940
240.45	4.036
240.66	4.110
240.88	4.072
241.10	4.094
241.31	3.860
241.53	3.932
241.75	3.924
241.97	3.957
242.18	4.036
242.40	4.023
242.62	4.032
242.83	4.069
243.05	3.981
243.27	4.001
243.48	3.949
243.70	4.026
243.92	3.904
244.13	3.814
244.35	3.717
244.57	3.665
244.78	3.717
245.00	3.694
245.22	3.668
245.43	3.640
245.65	3.639
245.87	3.643
246.08	3.644
246.30	3.728
246.52	3.823
246.73	3.957
246.95	4.004
247.17	3.983
247.38	3.949
247.60	3.880
247.81	3.939
248.03	3.920
248.25	3.938
248.46	4.003
248.68	4.056
248.90	4.059
249.11	3.984
249.33	3.947
249.55	3.910
249.76	3.945
249.98	3.867
250.20	3.826
250.41	3.879
250.63	3.812
250.84	3.657
251.06	3.555
251.28	3.511
251.49	3.528
251.71	3.520
251.93	3.594
252.14	3.542
252.36	3.666
252.57	3.654
252.79	3.568
253.01	3.615
253.22	3.711
253.44	3.712
253.66	3.730
253.87	3.677
254.09	3.598
254.30	3.514
254.52	3.513
254.74	3.422
254.95	3.413
255.17	3.351
255.39	3.333
255.60	3.304
255.82	3.277
256.03	3.265
256.25	3.326
256.47	3.420
256.68	3.397
256.90	3.359
257.11	3.390
257.33	3.416
257.55	3.440
257.76	3.454
257.98	3.426
258.19	3.424
258.41	3.385
258.63	3.316
258.84	3.269
259.06	3.232
259.27	3.325
259.49	3.282
259.70	3.128
259.92	3.125
260.14	3.018
260.35	3.024
260.57	2.975
260.78	2.944
261.00	2.922
261.22	2.890
261.43	2.908
261.65	2.797
261.86	2.839
262.08	2.920
262.29	2.944
262.51	3.019
262.73	3.002
262.94	3.051
263.16	3.037
263.37	3.069
263.59	3.121
263.80	3.138
264.02	3.119
264.23	3.068
264.45	3.070
264.67	3.038
264.88	3.036
265.10	3.056
265.31	3.089
265.53	3.039
265.74	2.996
265.96	2.881
266.18	2.891
266.39	2.908
266.61	2.923
266.82	2.918
267.04	2.901
267.25	2.842
267.47	2.858
267.68	2.823
267.90	2.869
268.11	2.848
268.33	2.932
268.54	2.927
268.76	2.933
268.98	2.906
269.19	2.878
269.41	2.865
269.62	2.918
269.84	2.853
270.05	2.820
270.27	2.808
270.48	2.788
270.70	2.770
270.91	2.795
271.13	2.767
271.34	2.776
271.56	2.793
271.77	2.815
271.99	2.762
272.20	2.776
272.42	2.813
272.64	2.857
272.85	2.876
273.07	2.880
273.28	2.833
273.50	2.872
273.71	2.872
273.93	2.843
274.14	2.869
274.36	2.918
274.57	2.930
274.79	2.879
275.00	2.862
275.22	2.920
275.43	2.932
275.65	2.976
275.86	2.916
276.08	2.892
276.29	2.879
276.51	2.854
276.72	2.791
276.94	2.786
277.15	2.765
277.37	2.747
277.58	2.661
277.80	2.615
278.01	2.576
278.23	2.549
278.44	2.551
278.65	2.586
278.87	2.528
279.08	2.534
279.30	2.530
279.51	2.529
279.73	2.486
279.94	2.546
280.16	2.561
280.37	2.584
280.59	2.596
280.80	2.572
281.02	2.527
281.23	2.621
281.45	2.613
281.66	2.594
281.88	2.654
282.09	2.661
282.31	2.639
282.52	2.634
282.73	2.566
282.95	2.556
283.16	2.614
283.38	2.641
283.59	2.569
283.81	2.544
284.02	2.501
284.24	2.406
284.45	2.437
284.67	2.404
284.88	2.424
285.09	2.413
285.31	2.472
285.52	2.452
285.74	2.417
285.95	2.426
286.17	2.422
286.38	2.429
286.60	2.487
286.81	2.456
287.02	2.446
287.24	2.418
287.45	2.430
287.67	2.395
287.88	2.343
288.10	2.334
288.31	2.307
288.52	2.340
288.74	2.399
288.95	2.407
289.17	2.413
289.38	2.479
289.60	2.458
289.81	2.466
290.02	2.463
290.24	2.488
290.45	2.516
290.67	2.514
290.88	2.492
291.10	2.411
291.31	2.408
291.52	2.392
291.74	2.365
291.95	2.381
292.17	2.348
292.38	2.363
292.59	2.387
292.81	2.329
293.02	2.307
293.24	2.264
293.45	2.300
293.66	2.288
293.88	2.294
294.09	2.280
294.31	2.298
294.52	2.299
294.73	2.258
294.95	2.187
295.16	2.245
295.38	2.256
295.59	2.320
295.80	2.298
296.02	2.284
296.23	2.301
296.45	2.286
296.66	2.244
296.87	2.294
297.09	2.303
297.30	2.333
297.51	2.361
297.73	2.322
297.94	2.323
298.16	2.341
298.37	2.327
298.58	2.352
298.80	2.380
299.01	2.417
299.22	2.396
299.44	2.375
299.65	2.374
299.87	2.316
300.08	2.362
300.29	2.318
300.51	2.260
300.72	2.236
300.93	2.200
301.15	2.113
301.36	2.112
301.57	2.073
301.79	2.124
302.00	2.171
302.21	2.211
302.43	2.252
302.64	2.251
302.86	2.367
303.07	2.389
303.28	2.365
303.50	2.402
303.71	2.377
303.92	2.394
304.14	2.363
304.35	2.331
304.56	2.357
304.78	2.345
304.99	2.387
305.20	2.317
305.42	2.331
305.63	2.332
305.84	2.326
306.06	2.344
306.27	2.368
306.48	2.334
306.70	2.329
306.91	2.256
307.12	2.255
307.34	2.257
307.55	2.261
307.76	2.261
307.98	2.271
308.19	2.260
308.40	2.241
308.62	2.239
308.83	2.229
309.04	2.232
309.25	2.292
309.47	2.231
309.68	2.206
309.89	2.175
310.11	2.136
310.32	2.169
310.53	2.178
310.75	2.195
310.96	2.152
311.17	2.161
311.39	2.154
311.60	2.075
311.81	2.075
312.02	2.030
312.24	2.063
312.45	2.110
312.66	2.030
312.88	2.055
313.09	2.033
313.30	2.027
313.51	2.042
313.73	2.001
313.94	2.037
314.15	2.026
314.37	2.080
314.58	2.051
314.79	2.023
315.00	2.072
315.22	2.039
315.43	1.980
315.64	1.979
315.86	1.989
316.07	2.046
316.28	1.991
316.49	2.030
316.71	2.029
316.92	2.027
317.13	2.042
317.35	1.941
317.56	2.002
317.77	2.049
317.98	2.086
318.20	2.045
318.41	2.005
318.62	2.058
318.83	2.070
319.05	2.063
319.26	2.063
319.47	2.030
319.68	2.131
319.90	2.078
320.11	2.022
320.32	1.946
320.53	1.948
320.75	1.970
320.96	1.910
321.17	1.855
321.38	1.809
321.60	1.813
321.81	1.814
322.02	1.763
322.23	1.764
322.45	1.793
322.66	1.857
322.87	1.912
323.08	1.827
323.30	1.869
323.51	1.846
323.72	1.914
323.93	1.925
324.14	1.905
324.36	1.913
324.57	1.966
324.78	1.948
324.99	1.937
325.21	1.886
325.42	1.963
325.63	1.973
325.84	2.008
326.05	1.925
326.27	1.922
326.48	1.929
326.69	1.918
326.90	1.882
327.12	1.950
327.33	1.953
327.54	1.938
327.75	1.905
327.96	1.927
328.18	1.980
328.39	2.042
328.60	2.023
328.81	2.063
329.02	2.077
329.24	2.062
329.45	2.023
329.66	2.026
329.87	2.084
330.08	2.042
330.30	2.014
330.51	2.038
330.72	1.982
330.93	1.951
331.14	1.885
331.36	1.887
331.57	1.848
331.78	1.886
331.99	1.877
332.20	1.848
332.41	1.860
332.63	1.859
332.84	1.714
333.05	1.743
333.26	1.780
333.47	1.836
333.68	1.846
333.90	1.852
334.11	1.792
334.32	1.766
334.53	1.764
334.74	1.819
334.96	1.752
335.17	1.823
335.38	1.788
335.59	1.759
335.80	1.736
336.01	1.751
336.22	1.814
336.44	1.818
336.65	1.863
336.86	1.806
337.07	1.831
337.28	1.914
337.49	1.914
337.71	1.966
337.92	1.974
338.13	1.963
338.34	1.924
338.55	1.832
338.76	1.824
338.97	1.821
339.19	1.975
339.40	1.941
339.61	1.902
339.82	1.925
340.03	1.852
340.24	1.825
340.45	1.815
340.67	1.804
340.88	1.829
341.09	1.832
341.30	1.759
341.51	1.591
341.72	1.585
341.93	1.636
342.14	1.585
342.36	1.634
342.57	1.658
342.78	1.607
342.99	1.617
343.20	1.641
343.41	1.629
343.62	1.690
343.83	1.788
344.05	1.803
344.26	1.775
344.47	1.807
344.68	1.773
344.89	1.823
345.10	1.901
345.31	1.834
345.52	1.785
345.73	1.802
345.95	1.741
346.16	1.713
346.37	1.692
346.58	1.656
346.79	1.613
347.00	1.610
347.21	1.583
347.42	1.574
347.63	1.592
347.84	1.628
348.05	1.628
348.27	1.643
348.48	1.662
348.69	1.669
348.90	1.643
349.11	1.626
349.32	1.629
349.53	1.634
349.74	1.636
349.95	1.710
350.16	1.698
350.37	1.756
350.58	1.718
350.80	1.670
351.01	1.670
351.22	1.748
351.43	1.809
351.64	1.835
351.85	1.822
352.06	1.750
352.27	1.717
352.48	1.747
352.69	1.748
352.90	1.826
353.11	1.889
353.32	1.873
353.53	1.836
353.74	1.849
353.96	1.790
354.17	1.821
354.38	1.925
354.59	1.953
354.80	1.933
355.01	1.860
355.22	1.811
355.43	1.742
355.64	1.713
355.85	1.672
356.06	1.632
356.27	1.647
356.48	1.630
356.69	1.552
356.90	1.513
357.11	1.562
357.32	1.644
357.53	1.665
357.74	1.677
357.95	1.696
358.16	1.756
358.37	1.763
358.58	1.809
358.79	1.822
359.01	1.817
359.22	1.850
359.43	1.837
359.64	1.783
359.85	1.736
360.06	1.767
360.27	1.814
360.48	1.743
360.69	1.752
360.90	1.725
361.11	1.714
361.32	1.688
361.53	1.697
361.74	1.658
361.95	1.660
362.16	1.632
362.37	1.609
362.58	1.579
362.79	1.638
363.00	1.563
363.21	1.507
363.42	1.476
363.63	1.500
363.84	1.521
364.05	1.498
364.26	1.456
364.47	1.463
364.68	1.409
364.89	1.377
365.10	1.333
365.31	1.383
365.52	1.476
365.73	1.442
365.94	1.469
366.15	1.441
366.36	1.413
366.57	1.440
366.78	1.518
366.99	1.602
367.20	1.610
367.41	1.647
367.62	1.702
367.83	1.722
368.03	1.794
368.24	1.801
368.45	1.792
368.66	1.860
368.87	1.827
369.08	1.796
369.29	1.788
369.50	1.830
369.71	1.815
369.92	1.766
370.13	1.723
370.34	1.658
370.55	1.647
370.76	1.673
370.97	1.670
371.18	1.667
371.39	1.639
371.60	1.557
371.81	1.496
372.02	1.558
372.23	1.549
372.44	1.558
372.65	1.625
372.86	1.670
373.06	1.628
373.27	1.651
373.48	1.668
373.69	1.688
373.90	1.737
374.11	1.761
374.32	1.718
374.53	1.750
374.74	1.719
374.95	1.646
375.16	1.573
375.37	1.546
375.58	1.525
375.79	1.493
376.00	1.525
376.20	1.562
376.41	1.516
376.62	1.523
376.83	1.523
377.04	1.499
377.25	1.592
377.46	1.618
377.67	1.699
377.88	1.660
378.09	1.710
378.30	1.691
378.51	1.596
378.71	1.681
378.92	1.628
379.13	1.624
379.34	1.677
379.55	1.664
379.76	1.724
379.97	1.685
380.18	1.711
380.39	1.709
380.60	1.720
380.80	1.792
381.01	1.774
381.22	1.841
381.43	1.769
381.64	1.790
381.85	1.732
382.06	1.720
382.27	1.740
382.48	1.704
382.68	1.712
382.89	1.747
383.10	1.774
383.31	1.721
383.52	1.679
383.73	1.754
383.94	1.726
384.15	1.715
384.36	1.647
384.56	1.712
384.77	1.726
384.98	1.718
385.19	1.677
385.40	1.572
385.61	1.659
385.82	1.686
386.02	1.650
386.23	1.707
386.44	1.718
386.65	1.717
386.86	1.639
387.07	1.648
387.28	1.575
387.48	1.557
387.69	1.622
387.90	1.596
388.11	1.544
388.32	1.542
388.53	1.493
388.74	1.539
388.94	1.532
389.15	1.512
389.36	1.457
389.57	1.477
389.78	1.491
389.99	1.506
390.19	1.452
390.40	1.465
390.61	1.471
390.82	1.495
391.03	1.420
391.24	1.437
391.44	1.382
391.65	1.362
391.86	1.414
392.07	1.407
392.28	1.364
392.49	1.419
392.69	1.449
392.90	1.496
393.11	1.489
393.32	1.530
393.53	1.573
393.74	1.610
393.94	1.693
394.15	1.683
394.36	1.654
394.57	1.667
394.78	1.728
394.98	1.703
395.19	1.686
395.40	1.596
395.61	1.561
395.82	1.513
396.02	1.519
396.23	1.519
396.44	1.520
396.65	1.530
396.86	1.523
397.06	1.374
397.27	1.336
397.48	1.401
397.69	1.382
397.90	1.392
398.10	1.402
398.31	1.456
398.52	1.446
398.73	1.445
398.94	1.481
399.14	1.462
399.35	1.476
399.56	1.523
399.77	1.414
399.97	1.479
400.18	1.415
400.39	1.419
400.60	1.351
400.81	1.286
401.01	1.253
401.22	1.219
401.43	1.285
401.64	1.322
401.84	1.242
402.05	1.263
402.26	1.229
402.47	1.248
402.68	1.203
402.88	1.195
403.09	1.167
403.30	1.128
403.51	1.085
403.71	1.064
403.92	0.986
404.13	1.066
404.34	1.021
404.54	1.048
404.75	1.092
404.96	1.118
405.17	1.084
405.37	1.189
405.58	1.251
405.79	1.290
406.00	1.251
406.20	1.330
406.41	1.321
406.62	1.316
406.83	1.270
407.03	1.287
407.24	1.284
407.45	1.378
407.65	1.339
407.86	1.390
408.07	1.409
408.28	1.427
408.48	1.429
408.69	1.398
408.90	1.462
409.11	1.490
409.31	1.485
409.52	1.431
409.73	1.432
409.93	1.449
410.14	1.432
410.35	1.443
410.56	1.503
410.76	1.460
410.97	1.474
411.18	1.466
411.38	1.414
411.59	1.393
411.80	1.459
412.01	1.386
412.21	1.444
412.42	1.391
412.63	1.358
412.83	1.269
413.04	1.330
413.25	1.303
413.45	1.291
413.66	1.307
413.87	1.342
414.07	1.317
414.28	1.359
414.49	1.270
414.70	1.298
414.90	1.293
415.11	1.343
415.32	1.297
415.52	1.317
415.73	1.315
415.94	1.373
416.14	1.318
416.35	1.283
416.56	1.283
416.76	1.389
416.97	1.364
417.18	1.324
417.38	1.275
417.59	1.255
417.80	1.271
418.00	1.284
418.21	1.241
418.42	1.327
418.62	1.406
418.83	1.390
419.04	1.279
419.24	1.320
419.45	1.393
419.66	1.415
419.86	1.440
420.07	1.422
420.28	1.374
420.48	1.369
420.69	1.339
420.90	1.284
421.10	1.308
421.31	1.290
421.52	1.274
421.72	1.239
421.93	1.188
422.13	1.151
422.34	1.111
422.55	1.116
422.75	1.145
422.96	1.119
423.17	1.096
423.37	1.073
423.58	1.095
423.79	1.083
423.99	1.072
424.20	1.128
424.40	1.116
424.61	1.116
424.82	1.104
425.02	1.076
425.23	1.057
425.44	1.075
425.64	1.064
425.85	1.060
426.05	1.054
426.26	1.042
426.47	1.003
426.67	1.029
426.88	1.042
427.08	1.039
427.29	1.035
427.50	1.041
427.70	1.032
427.91	1.019
428.12	1.015
428.32	0.988
428.53	0.988
428.73	0.986
428.94	0.954
429.15	0.949
429.35	0.949
429.56	0.939
429.76	0.938
429.97	0.932
430.17	0.939
430.38	0.919
430.59	0.932
430.79	0.917
431.00	0.911
431.20	0.930
431.41	0.918
431.62	0.899
431.82	0.893
432.03	0.873
432.23	0.866
432.44	0.828
432.64	0.816
432.85	0.747
433.06	0.706
433.26	0.649
433.47	0.576
433.67	0.513
433.88	0.456
434.08	0.405
434.29	0.362
434.50	0.316
434.70	0.305
434.91	0.284
435.11	0.313
435.32	0.343
435.52	0.391
435.73	0.435
435.93	0.497
436.14	0.549
436.35	0.597
436.55	0.648
436.76	0.709
436.96	0.744
437.17	0.782
437.37	0.811
437.58	0.836
437.78	0.848
437.99	0.872
438.20	0.896
438.40	0.913
438.61	0.915
438.81	0.918
439.02	0.912
439.22	0.914
439.43	0.913
439.63	0.912
439.84	0.902
440.04	0.902
440.25	0.898
440.45	0.865
440.66	0.873
440.86	0.875
441.07	0.867
441.27	0.875
441.48	0.872
441.68	0.872
441.89	0.879
442.10	0.876
442.30	0.868
442.51	0.862
442.71	0.880
442.92	0.867
443.12	0.875
443.33	0.882
443.53	0.871
443.74	0.862
443.94	0.868
444.15	0.859
444.35	0.862
444.56	0.871
444.76	0.872
444.97	0.874
445.17	0.873
445.38	0.858
445.58	0.858
445.79	0.851
445.99	0.862
446.20	0.850
446.40	0.849
446.61	0.844
446.81	0.836
447.01	0.834
447.22	0.825
447.42	0.832
447.63	0.833
447.83	0.832
448.04	0.837
448.24	0.829
448.45	0.837
448.65	0.838
448.86	0.847
449.06	0.845
449.27	0.851
449.47	0.853
449.68	0.853
449.88	0.860
450.09	0.863
450.29	0.863
450.49	0.872
450.70	0.876
450.90	0.880
451.11	0.872
451.31	0.885
451.52	0.876
451.72	0.871
451.93	0.864
452.13	0.864
452.34	0.861
452.54	0.861
452.74	0.857
452.95	0.853
453.15	0.851
453.36	0.849
453.56	0.844
453.77	0.842
453.97	0.853
454.18	0.852
454.38	0.851
454.58	0.848
454.79	0.843
454.99	0.839
455.20	0.832
455.40	0.830
455.61	0.833
455.81	0.834
456.01	0.837
456.22	0.835
456.42	0.838
456.63	0.826
456.83	0.827
457.04	0.837
457.24	0.847
457.44	0.853
457.65	0.855
457.85	0.849
458.06	0.850
458.26	0.855
458.46	0.853
458.67	0.855
458.87	0.872
459.08	0.869
459.28	0.862
459.48	0.861
459.69	0.861
459.89	0.860
460.10	0.867
460.30	0.857
460.50	0.855
460.71	0.852
460.91	0.858
461.12	0.855
461.32	0.864
461.52	0.865
461.73	0.859
461.93	0.861
462.14	0.861
462.34	0.862
462.54	0.870
462.75	0.875
462.95	0.871
463.15	0.865
463.36	0.864
463.56	0.861
463.77	0.866
463.97	0.863
464.17	0.865
464.38	0.867
464.58	0.868
464.78	0.869
464.99	0.865
465.19	0.865
465.40	0.866
465.60	0.871
465.80	0.869
466.01	0.874
466.21	0.881
466.41	0.875
466.62	0.876
466.82	0.870
467.02	0.859
467.23	0.863
467.43	0.865
467.63	0.860
467.84	0.857
468.04	0.859
468.24	0.855
468.45	0.856
468.65	0.866
468.86	0.861
469.06	0.862
469.26	0.877
469.47	0.874
469.67	0.878
469.87	0.880
470.08	0.871
470.28	0.873
470.48	0.881
470.69	0.873
470.89	0.871
471.09	0.877
471.30	0.889
471.50	0.884
471.70	0.887
471.90	0.885
472.11	0.889
472.31	0.894
472.51	0.895
472.72	0.877
472.92	0.880
473.12	0.879
473.33	0.870
473.53	0.859
473.73	0.860
473.94	0.865
474.14	0.870
474.34	0.872
474.55	0.878
474.75	0.872
474.95	0.880
475.15	0.884
475.36	0.885
475.56	0.889
475.76	0.885
475.97	0.875
476.17	0.871
476.37	0.877
476.57	0.885
476.78	0.873
476.98	0.877
477.18	0.872
477.39	0.861
477.59	0.856
477.79	0.855
477.99	0.855
478.20	0.865
478.40	0.868
478.60	0.859
478.81	0.847
479.01	0.852
479.21	0.847
479.41	0.859
479.62	0.867
479.82	0.866
480.02	0.864
480.22	0.863
480.43	0.869
480.63	0.865
480.83	0.868
481.04	0.864
481.24	0.865
481.44	0.862
481.64	0.854
481.85	0.850
482.05	0.856
482.25	0.862
482.45	0.861
482.66	0.863
482.86	0.859
483.06	0.851
483.26	0.844
483.47	0.848
483.67	0.849
483.87	0.851
484.07	0.851
484.28	0.849
484.48	0.850
484.68	0.856
484.88	0.845
485.08	0.854
485.29	0.863
485.49	0.869
485.69	0.853
485.89	0.862
486.10	0.867
486.30	0.874
486.50	0.874
486.70	0.875
486.90	0.880
487.11	0.882
487.31	0.869
487.51	0.863
487.71	0.871
487.92	0.884
488.12	0.876
488.32	0.872
488.52	0.867
488.72	0.866
488.93	0.854
489.13	0.851
489.33	0.855
489.53	0.867
489.73	0.869
489.94	0.866
490.14	0.860
490.34	0.865
490.54	0.866
490.74	0.871
490.95	0.875
491.15	0.881
491.35	0.885
491.55	0.890
491.75	0.891
491.96	0.891
492.16	0.887
492.36	0.896
492.56	0.903
492.76	0.907
492.96	0.908
493.17	0.905
493.37	0.908
493.57	0.912
493.77	0.908
493.97	0.912
494.18	0.915
494.38	0.927
494.58	0.933
494.78	0.923
494.98	0.923
495.18	0.924
495.39	0.933
495.59	0.941
495.79	0.937
495.99	0.945
496.19	0.951
496.39	0.952
496.60	0.959
496.80	0.960
497.00	0.973
497.20	0.968
497.40	0.967
497.60	0.965
497.80	0.965
498.01	0.972
498.21	0.969
498.41	0.962
498.61	0.964
498.81	0.954
499.01	0.954
499.21	0.956
499.42	0.966
499.62	0.971
499.82	0.978
500.02	0.983
500.22	0.982
500.42	0.982
500.62	0.989
500.82	0.994
501.03	1.000
501.23	1.002
501.43	0.998
501.63	1.003
501.83	1.013
502.03	1.008
502.23	1.004
502.43	1.014
502.64	1.023
502.84	1.016
503.04	1.010
503.24	1.020
503.44	1.018
503.64	1.021
503.84	1.012
504.04	1.009
504.24	1.010
504.45	1.017
504.65	1.006
504.85	1.010
505.05	1.019
505.25	1.028
505.45	1.026
505.65	1.030
505.85	1.045
506.05	1.053
506.25	1.053
506.45	1.058
506.66	1.059
506.86	1.064
507.06	1.062
507.26	1.064
507.46	1.066
507.66	1.073
507.86	1.080
508.06	1.071
508.26	1.073
508.46	1.079
508.66	1.079
508.86	1.086
509.06	1.095
509.27	1.102
509.47	1.103
509.67	1.109
509.87	1.115
510.07	1.116
510.27	1.116
510.47	1.115
510.67	1.112
510.87	1.121
511.07	1.121
511.27	1.123
511.47	1.116
511.67	1.121
511.87	1.124
512.07	1.117
512.27	1.113
512.47	1.122
512.68	1.128
512.88	1.141
513.08	1.146
513.28	1.142
513.48	1.130
513.68	1.138
513.88	1.139
514.08	1.139
514.28	1.138
514.48	1.143
514.68	1.133
514.88	1.131
515.08	1.127
515.28	1.125
515.48	1.122
515.68	1.130
515.88	1.132
516.08	1.129
516.28	1.133
516.48	1.133
516.68	1.131
516.88	1.144
517.08	1.150
517.28	1.158
517.48	1.158
517.68	1.172
517.88	1.177
518.08	1.180
518.28	1.184
518.48	1.179
518.68	1.187
518.88	1.196
519.08	1.198
519.28	1.199
519.48	1.199
519.68	1.208
519.88	1.212
520.08	1.220
520.28	1.221
520.48	1.227
520.68	1.235
520.88	1.233
521.08	1.241
521.28	1.250
521.48	1.250
521.68	1.260
521.88	1.256
522.08	1.259
522.28	1.265
522.48	1.275
522.68	1.270
522.88	1.264
523.08	1.264
523.28	1.263
523.48	1.251
523.68	1.259
523.88	1.244
524.08	1.248
524.28	1.250
524.48	1.253
524.68	1.252
524.88	1.252
525.08	1.263
525.28	1.271
525.48	1.273
525.68	1.282
525.88	1.290
526.07	1.299
526.27	1.300
526.47	1.293
526.67	1.283
526.87	1.278
527.07	1.290
527.27	1.285
527.47	1.284
527.67	1.273
527.87	1.271
528.07	1.281
528.27	1.276
528.47	1.282
528.67	1.297
528.87	1.297
529.07	1.294
529.27	1.296
529.46	1.303
529.66	1.309
529.86	1.318
530.06	1.330
530.26	1.319
530.46	1.318
530.66	1.318
530.86	1.307
531.06	1.318
531.26	1.329
531.46	1.332
531.66	1.325
531.86	1.324
532.05	1.332
532.25	1.329
532.45	1.332
532.65	1.340
532.85	1.334
533.05	1.340
533.25	1.329
533.45	1.325
533.65	1.340
533.85	1.343
534.04	1.348
534.24	1.342
534.44	1.344
534.64	1.342
534.84	1.349
535.04	1.356
535.24	1.364
535.44	1.371
535.64	1.373
535.84	1.350
536.03	1.357
536.23	1.357
536.43	1.362
536.63	1.352
536.83	1.352
537.03	1.350
537.23	1.339
537.43	1.318
537.62	1.320
537.82	1.313
538.02	1.312
538.22	1.305
538.42	1.300
538.62	1.289
538.82	1.294
539.01	1.288
539.21	1.279
539.41	1.277
539.61	1.275
539.81	1.264
540.01	1.258
540.21	1.260
540.40	1.256
540.60	1.242
540.80	1.232
541.00	1.222
541.20	1.207
541.40	1.192
541.60	1.194
541.79	1.186
541.99	1.180
542.19	1.176
542.39	1.164
542.59	1.138
542.79	1.117
542.98	1.102
543.18	1.077
543.38	1.047
543.58	1.015
543.78	0.969
543.98	0.929
544.17	0.896
544.37	0.867
544.57	0.840
544.77	0.827
544.97	0.823
545.17	0.831
545.36	0.843
545.56	0.869
545.76	0.902
545.96	0.940
546.16	0.991
546.35	1.037
546.55	1.072
546.75	1.114
546.95	1.165
547.15	1.199
547.34	1.223
547.54	1.241
547.74	1.256
547.94	1.271
548.14	1.291
548.33	1.302
548.53	1.313
548.73	1.333
548.93	1.343
549.13	1.352
549.32	1.361
549.52	1.372
549.72	1.378
549.92	1.390
550.12	1.398
550.31	1.400
550.51	1.406
550.71	1.397
550.91	1.383
551.10	1.377
551.30	1.366
551.50	1.365
551.70	1.363
551.90	1.365
552.09	1.366
552.29	1.373
552.49	1.379
552.69	1.372
552.88	1.381
553.08	1.403
553.28	1.408
553.48	1.413
553.67	1.421
553.87	1.424
554.07	1.434
554.27	1.437
554.46	1.435
554.66	1.433
554.86	1.438
555.06	1.436
555.25	1.430
555.45	1.440
555.65	1.444
555.85	1.443
556.04	1.444
556.24	1.438
556.44	1.441
556.64	1.442
556.83	1.441
557.03	1.439
557.23	1.444
557.43	1.435
557.62	1.423
557.82	1.418
558.02	1.424
558.21	1.425
558.41	1.427
558.61	1.416
558.81	1.414
559.00	1.409
559.20	1.407
559.40	1.409
559.60	1.418
559.79	1.417
559.99	1.415
560.19	1.407
560.38	1.408
560.58	1.410
560.78	1.418
560.97	1.423
561.17	1.425
561.37	1.430
561.57	1.426
561.76	1.418
561.96	1.423
562.16	1.429
562.35	1.436
562.55	1.438
562.75	1.428
562.94	1.427
563.14	1.417
563.34	1.420
563.54	1.424
563.73	1.424
563.93	1.431
564.13	1.436
564.32	1.425
564.52	1.418
564.72	1.416
564.91	1.431
565.11	1.432
565.31	1.438
565.50	1.441
565.70	1.435
565.90	1.439
566.09	1.436
566.29	1.435
566.49	1.441
566.68	1.442
566.88	1.436
567.08	1.425
567.27	1.422
567.47	1.421
567.67	1.414
567.86	1.413
568.06	1.407
568.26	1.410
568.45	1.403
568.65	1.402
568.85	1.402
569.04	1.414
569.24	1.417
569.44	1.413
569.63	1.406
569.83	1.410
570.02	1.409
570.22	1.415
570.42	1.412
570.61	1.409
570.81	1.409
571.01	1.408
571.20	1.397
571.40	1.398
571.59	1.405
571.79	1.418
571.99	1.417
572.18	1.421
572.38	1.411
572.58	1.417
572.77	1.419
572.97	1.423
573.16	1.424
573.36	1.423
573.56	1.421
573.75	1.415
573.95	1.413
574.15	1.408
574.34	1.401
574.54	1.404
574.73	1.397
574.93	1.392
575.13	1.385
575.32	1.378
575.52	1.369
575.71	1.367
575.91	1.360
576.11	1.341
576.30	1.336
576.50	1.335
576.69	1.337
576.89	1.330
577.09	1.324
577.28	1.328
577.48	1.321
577.67	1.329
577.87	1.329
578.06	1.329
578.26	1.346
578.46	1.357
578.65	1.358
578.85	1.348
579.04	1.355
579.24	1.358
579.43	1.356
579.63	1.365
579.83	1.371
580.02	1.369
580.22	1.373
580.41	1.365
580.61	1.362
580.80	1.366
581.00	1.363
581.20	1.358
581.39	1.368
581.59	1.365
581.78	1.366
581.98	1.359
582.17	1.353
582.37	1.347
582.56	1.345
582.76	1.336
582.96	1.330
583.15	1.338
583.35	1.338
583.54	1.334
583.74	1.336
583.93	1.326
584.13	1.323
584.32	1.321
584.52	1.320
584.71	1.325
584.91	1.330
585.10	1.333
585.30	1.338
585.49	1.337
585.69	1.331
585.89	1.334
586.08	1.338
586.28	1.343
586.47	1.349
586.67	1.351
586.86	1.345
587.06	1.341
587.25	1.341
587.45	1.333
587.64	1.325
587.84	1.327
588.03	1.321
588.23	1.323
588.42	1.317
588.62	1.314
588.81	1.316
589.01	1.317
589.20	1.320
589.40	1.314
589.59	1.312
589.79	1.312
589.98	1.314
590.18	1.317
590.37	1.315
590.57	1.312
590.76	1.318
590.96	1.317
591.15	1.321
591.35	1.325
591.54	1.328
591.74	1.333
591.93	1.338
592.13	1.335
592.32	1.338
592.51	1.338
592.71	1.336
592.90	1.334
593.10	1.334
593.29	1.326
593.49	1.320
593.68	1.321
593.88	1.316
594.07	1.312
594.27	1.311
594.46	1.304
594.66	1.307
594.85	1.307
595.05	1.307
595.24	1.303
595.43	1.306
595.63	1.311
595.82	1.307
596.02	1.309
596.21	1.311
596.41	1.310
596.60	1.315
596.80	1.305
596.99	1.309
597.18	1.309
597.38	1.311
597.57	1.318
597.77	1.316
597.96	1.314
598.16	1.308
598.35	1.302
598.54	1.309
598.74	1.297
598.93	1.304
599.13	1.304
599.32	1.295
599.52	1.297
599.71	1.298
599.90	1.296
600.10	1.298
600.29	1.306
600.49	1.308
600.68	1.303
600.88	1.318
601.07	1.313
601.26	1.313
601.46	1.323
601.65	1.318
601.85	1.316
602.04	1.312
602.23	1.308
602.43	1.302
602.62	1.308
602.82	1.308
603.01	1.308
603.20	1.307
603.40	1.302
603.59	1.294
603.79	1.295
603.98	1.289
604.17	1.287
604.37	1.290
604.56	1.291
604.75	1.289
604.95	1.285
605.14	1.276
605.34	1.270
605.53	1.273
605.72	1.275
605.92	1.267
606.11	1.274
606.30	1.272
606.50	1.269
606.69	1.273
606.89	1.263
607.08	1.258
607.27	1.251
607.47	1.261
607.66	1.259
607.85	1.252
608.05	1.257
608.24	1.242
608.43	1.235
608.63	1.222
608.82	1.209
609.02	1.197
609.21	1.192
609.40	1.185
609.60	1.166
609.79	1.153
609.98	1.142
610.18	1.127
610.37	1.124
610.56	1.125
610.76	1.120
610.95	1.116
611.14	1.124
611.34	1.120
611.53	1.114
611.72	1.119
611.92	1.117
612.11	1.125
612.30	1.133
612.50	1.132
612.69	1.136
612.88	1.146
613.08	1.153
613.27	1.158
613.46	1.168
613.66	1.179
613.85	1.189
614.04	1.197
614.23	1.202
614.43	1.204
614.62	1.216
614.81	1.217
615.01	1.215
615.20	1.214
615.39	1.220
615.59	1.211
615.78	1.211
615.97	1.204
616.16	1.199
616.36	1.200
616.55	1.195
616.74	1.185
616.94	1.179
617.13	1.182
617.32	1.183
617.52	1.175
617.71	1.190
617.90	1.190
618.09	1.192
618.29	1.195
618.48	1.180
618.67	1.178
618.86	1.190
619.06	1.189
619.25	1.187
619.44	1.192
619.64	1.194
619.83	1.185
620.02	1.180
620.21	1.182
620.41	1.186
620.60	1.193
620.79	1.191
620.98	1.183
621.18	1.175
621.37	1.172
621.56	1.167
621.75	1.167
621.95	1.170
622.14	1.186
622.33	1.177
622.52	1.178
622.72	1.186
622.91	1.187
623.10	1.185
623.29	1.199
623.49	1.198
623.68	1.203
623.87	1.207
624.06	1.204
624.26	1.191
624.45	1.196
624.64	1.190
624.83	1.179
625.03	1.186
625.22	1.187
625.41	1.177
625.60	1.179
625.79	1.171
625.99	1.164
626.18	1.169
626.37	1.175
626.56	1.167
626.76	1.163
626.95	1.177
627.14	1.172
627.33	1.173
627.52	1.171
627.72	1.176
627.91	1.175
628.10	1.172
628.29	1.163
628.48	1.159
628.68	1.169
628.87	1.173
629.06	1.160
629.25	1.160
629.44	1.161
629.64	1.165
629.83	1.160
630.02	1.170
630.21	1.170
630.40	1.174
630.60	1.170
630.79	1.163
630.98	1.155
631.17	1.161
631.36	1.168
631.55	1.162
631.75	1.165
631.94	1.159
632.13	1.152
632.32	1.151
632.51	1.157
632.70	1.158
632.90	1.161
633.09	1.171
633.28	1.173
633.47	1.173
633.66	1.172
633.85	1.168
634.05	1.177
634.24	1.178
634.43	1.179
634.62	1.172
634.81	1.180
635.00	1.179
635.20	1.182
635.39	1.184
635.58	1.175
635.77	1.172
635.96	1.177
636.15	1.177
636.34	1.183
636.54	1.178
636.73	1.178
636.92	1.173
637.11	1.182
637.30	1.177
637.49	1.174
637.68	1.175
637.87	1.193
638.07	1.193
638.26	1.195
638.45	1.190
638.64	1.192
638.83	1.191
639.02	1.193
639.21	1.187
639.40	1.187
639.60	1.185
639.79	1.187
639.98	1.174
640.17	1.171
640.36	1.160
640.55	1.152
640.74	1.148
640.93	1.145
641.12	1.151
641.32	1.147
641.51	1.152
641.70	1.150
641.89	1.151
642.08	1.155
642.27	1.158
642.46	1.170
642.65	1.173
642.84	1.179
643.03	1.190
643.22	1.179
643.42	1.179
643.61	1.165
643.80	1.161
643.99	1.160
644.18	1.161
644.37	1.161
644.56	1.162
644.75	1.163
644.94	1.168
645.13	1.163
645.32	1.166
645.51	1.170
645.70	1.179
645.90	1.189
646.09	1.196
646.28	1.198
646.47	1.193
646.66	1.190
646.85	1.188
647.04	1.184
647.23	1.178
647.42	1.177
647.61	1.181
647.80	1.183
647.99	1.183
648.18	1.173
648.37	1.165
648.56	1.180
648.75	1.177
648.94	1.187
649.13	1.195
649.32	1.206
649.51	1.202
649.71	1.201
649.90	1.198
650.09	1.203
650.28	1.208
650.47	1.216
650.66	1.212
650.85	1.209
651.04	1.210
651.23	1.211
651.42	1.206
651.61	1.207
651.80	1.210
651.99	1.214
652.18	1.215
652.37	1.214
652.56	1.210
652.75	1.204
652.94	1.216
653.13	1.213
653.32	1.212
653.51	1.214
653.70	1.221
653.89	1.227
654.08	1.227
654.27	1.221
654.46	1.221
654.65	1.223
654.84	1.231
655.03	1.232
655.22	1.233
655.41	1.224
655.60	1.233
655.79	1.234
655.98	1.225
656.17	1.234
656.36	1.227
656.55	1.229
656.74	1.222
656.93	1.214
657.12	1.220
657.31	1.213
657.50	1.224
657.69	1.220
657.88	1.221
658.07	1.231
658.26	1.221
658.45	1.226
658.64	1.223
658.82	1.226
659.01	1.234
659.20	1.220
659.39	1.225
659.58	1.219
659.77	1.215
659.96	1.217
660.15	1.206
660.34	1.205
660.53	1.201
660.72	1.203
660.91	1.201
661.10	1.197
661.29	1.201
661.48	1.198
661.67	1.192
661.86	1.191
662.05	1.190
662.24	1.195
662.42	1.198
662.61	1.203
662.80	1.207
662.99	1.207
663.18	1.216
663.37	1.217
663.56	1.222
663.75	1.229
663.94	1.238
664.13	1.228
664.32	1.225
664.51	1.227
664.70	1.232
664.89	1.232
665.07	1.234
665.26	1.232
665.45	1.234
665.64	1.229
665.83	1.234
666.02	1.226
666.21	1.230
666.40	1.236
666.59	1.236
666.78	1.231
666.96	1.240
667.15	1.242
667.34	1.244
667.53	1.254
667.72	1.255
667.91	1.250
668.10	1.255
668.29	1.270
668.48	1.274
668.66	1.280
668.85	1.276
669.04	1.266
669.23	1.273
669.42	1.270
669.61	1.269
669.80	1.281
669.99	1.287
670.18	1.288
670.36	1.280
670.55	1.271
670.74	1.272
670.93	1.283
671.12	1.288
671.31	1.293
671.50	1.293
671.68	1.289
671.87	1.293
672.06	1.292
672.25	1.293
672.44	1.300
672.63	1.312
672.82	1.311
673.00	1.314
673.19	1.314
673.38	1.314
673.57	1.320
673.76	1.317
673.95	1.310
674.13	1.315
674.32	1.315
674.51	1.320
674.70	1.325
674.89	1.319
675.08	1.323
675.26	1.327
675.45	1.328
675.64	1.331
675.83	1.345
676.02	1.360
676.21	1.359
676.39	1.371
676.58	1.361
676.77	1.351
676.96	1.370
677.15	1.373
677.34	1.373
677.52	1.371
677.71	1.368
677.90	1.362
678.09	1.348
678.28	1.355
678.46	1.356
678.65	1.375
678.84	1.388
679.03	1.382
679.22	1.379
679.40	1.384
679.59	1.395
679.78	1.397
679.97	1.401
680.16	1.410
680.34	1.418
680.53	1.419
680.72	1.418
680.91	1.418
681.09	1.420
681.28	1.424
681.47	1.425
681.66	1.420
681.85	1.434
682.03	1.440
682.22	1.444
682.41	1.442
682.60	1.440
682.78	1.440
682.97	1.443
683.16	1.461
683.35	1.456
683.54	1.476
683.72	1.492
683.91	1.486
684.10	1.487
684.29	1.501
684.47	1.499
684.66	1.503
684.85	1.504
685.04	1.513
685.22	1.506
685.41	1.521
685.60	1.515
685.79	1.506
685.97	1.510
686.16	1.524
686.35	1.516
686.54	1.525
686.72	1.535
686.91	1.545
687.10	1.548
687.29	1.558
687.47	1.575
687.66	1.584
687.85	1.603
688.03	1.616
688.22	1.609
688.41	1.621
688.60	1.625
688.78	1.623
688.97	1.628
689.16	1.641
689.34	1.656
689.53	1.657
689.72	1.664
689.91	1.671
690.09	1.681
690.28	1.697
690.47	1.709
690.65	1.721
690.84	1.735
691.03	1.736
691.22	1.738
691.40	1.736
691.59	1.740
691.78	1.744
691.96	1.747
692.15	1.744
692.34	1.760
692.52	1.761
692.71	1.772
692.90	1.788
693.08	1.801
693.27	1.813
693.46	1.819
693.65	1.826
693.83	1.847
694.02	1.854
694.21	1.870
694.39	1.869
694.58	1.885
694.77	1.894
694.95	1.900
695.14	1.906
695.33	1.907
695.51	1.922
695.70	1.928
695.89	1.924
696.07	1.940
696.26	1.958
696.45	1.967
696.63	1.967
696.82	1.978
697.00	1.979
697.19	1.991
697.38	2.010
697.56	2.019
697.75	2.027
697.94	2.031
698.12	2.036
698.31	2.047
698.50	2.060
698.68	2.065
698.87	2.071
699.06	2.091
699.24	2.116
699.43	2.128
699.61	2.137
699.80	2.152
699.99	2.177
700.17	2.179
700.36	2.175
700.55	2.184
700.73	2.209
700.92	2.236
701.10	2.243
701.29	2.252
701.48	2.251
701.66	2.266
701.85	2.280
702.04	2.281
702.22	2.301
702.41	2.320
702.59	2.340
702.78	2.352
702.97	2.357
703.15	2.382
703.34	2.394
703.52	2.416
703.71	2.423
703.90	2.434
704.08	2.451
704.27	2.466
704.45	2.477
704.64	2.494
704.83	2.505
705.01	2.516
705.20	2.521
705.38	2.526
705.57	2.535
705.75	2.554
705.94	2.574
706.13	2.585
706.31	2.605
706.50	2.621
706.68	2.629
706.87	2.639
707.05	2.659
707.24	2.672
707.43	2.688
707.61	2.692
707.80	2.699
707.98	2.699
708.17	2.722
708.35	2.731
708.54	2.744
708.72	2.765
708.91	2.770
709.10	2.771
709.28	2.776
709.47	2.785
709.65	2.808
709.84	2.824
710.02	2.841
710.21	2.852
710.39	2.865
710.58	2.888
710.76	2.894
710.95	2.920
711.14	2.934
711.32	2.960
711.51	2.988
711.69	2.999
711.88	3.017
712.06	3.048
712.25	3.064
712.43	3.088
712.62	3.095
712.80	3.115
712.99	3.129
713.17	3.149
713.36	3.155
713.54	3.152
713.73	3.167
713.91	3.179
714.10	3.187
714.28	3.197
714.47	3.221
714.65	3.242
714.84	3.255
715.02	3.257
715.21	3.272
715.39	3.291
715.58	3.317
715.76	3.324
715.95	3.349
716.13	3.364
716.32	3.383
716.50	3.374
716.69	3.382
716.87	3.391
717.06	3.427
717.24	3.443
717.43	3.459
717.61	3.468
717.80	3.511
717.98	3.517
718.17	3.529
718.35	3.536
718.54	3.551
718.72	3.560
718.91	3.585
719.09	3.601
719.28	3.617
719.46	3.626
719.64	3.633
719.83	3.642
720.01	3.660
720.20	3.678
720.38	3.701
720.57	3.712
720.75	3.736
720.94	3.743
721.12	3.737
721.31	3.741
721.49	3.750
721.67	3.774
721.86	3.786
722.04	3.802
722.23	3.813
722.41	3.829
722.60	3.862
722.78	3.866
722.96	3.889
723.15	3.914
723.33	3.937
723.52	3.948
723.70	3.950
723.89	3.965
724.07	3.974
724.25	3.990
724.44	4.003
724.62	4.011
724.81	4.039
724.99	4.059
725.18	4.073
725.36	4.088
725.54	4.134
725.73	4.161
725.91	4.180
726.10	4.193
726.28	4.200
726.46	4.219
726.65	4.229
726.83	4.241
727.02	4.238
727.20	4.244
727.38	4.257
727.57	4.247
727.75	4.251
727.94	4.265
728.12	4.280
728.30	4.316
728.49	4.328
728.67	4.344
728.86	4.342
729.04	4.359
729.22	4.374
729.41	4.398
729.59	4.426
729.77	4.456
729.96	4.470
730.14	4.484
730.33	4.477
730.51	4.485
730.69	4.493
730.88	4.514
731.06	4.528
731.24	4.539
731.43	4.537
731.61	4.546
731.79	4.554
731.98	4.547
732.16	4.561
732.35	4.577
732.53	4.586
732.71	4.592
732.90	4.617
733.08	4.620
733.26	4.632
733.45	4.649
733.63	4.658
733.81	4.660
734.00	4.687
734.18	4.694
734.36	4.694
734.55	4.705
734.73	4.722
734.91	4.733
735.10	4.745
735.28	4.764
735.46	4.779
735.65	4.781
735.83	4.814
736.01	4.819
736.20	4.830
736.38	4.865
736.56	4.880
736.75	4.900
736.93	4.899
737.11	4.929
737.29	4.940
737.48	4.948
737.66	4.959
737.84	4.960
738.03	4.981
738.21	4.996
738.39	4.982
738.58	5.001
738.76	5.004
738.94	5.019
739.13	5.016
739.31	5.022
739.49	5.039
739.67	5.060
739.86	5.065
740.04	5.064
740.22	5.071
740.41	5.090
740.59	5.097
740.77	5.106
740.95	5.117
741.14	5.148
741.32	5.167
741.50	5.166
741.68	5.173
741.87	5.186
742.05	5.208
742.23	5.226
742.42	5.241
742.60	5.245
742.78	5.257
742.96	5.261
743.15	5.256
743.33	5.247
743.51	5.252
743.69	5.256
743.88	5.277
744.06	5.278
744.24	5.287
744.42	5.300
744.61	5.327
744.79	5.348
744.97	5.364
745.15	5.374
745.34	5.395
745.52	5.407
745.70	5.424
745.88	5.428
746.07	5.429
746.25	5.435
746.43	5.442
746.61	5.437
746.79	5.440
746.98	5.460
747.16	5.467
747.34	5.475
747.52	5.496
747.71	5.517
747.89	5.513
748.07	5.529
748.25	5.554
748.43	5.573
748.62	5.583
748.80	5.593
748.98	5.582
749.16	5.587
749.34	5.595
749.53	5.594
749.71	5.592
749.89	5.607
750.07	5.615
750.25	5.598
750.44	5.605
750.62	5.614
750.80	5.624
750.98	5.648
751.16	5.663
751.35	5.691
751.53	5.701
751.71	5.721
751.89	5.727
752.07	5.732
752.26	5.750
752.44	5.765
752.62	5.791
752.80	5.788
752.98	5.802
753.16	5.798
753.35	5.781
753.53	5.802
753.71	5.797
753.89	5.820
754.07	5.828
754.25	5.837
754.44	5.823
754.62	5.815
754.80	5.818
754.98	5.825
755.16	5.852
755.34	5.856
755.52	5.858
755.71	5.858
755.89	5.876
756.07	5.896
756.25	5.907
756.43	5.922
756.61	5.936
756.80	5.972
756.98	5.965
757.16	5.963
757.34	5.981
757.52	5.990
757.70	6.013
757.88	6.009
758.06	6.014
758.25	6.019
758.43	6.033
758.61	6.036
758.79	6.037
758.97	6.046
759.15	6.065
759.33	6.078
759.51	6.088
759.70	6.081
759.88	6.094
760.06	6.098
760.24	6.117
760.42	6.120
760.60	6.121
760.78	6.129
760.96	6.142
761.14	6.137
761.32	6.144
761.51	6.154
761.69	6.180
761.87	6.187
762.05	6.206
762.23	6.200
762.41	6.191
762.59	6.225
762.77	6.212
762.95	6.211
763.13	6.226
763.31	6.229
763.50	6.229
763.68	6.239
763.86	6.240
764.04	6.241
764.22	6.261
764.40	6.274
764.58	6.259
764.76	6.285
764.94	6.300
765.12	6.309
765.30	6.329
765.48	6.347
765.66	6.340
765.84	6.341
766.02	6.351
766.21	6.360
766.39	6.368
766.57	6.400
766.75	6.403
766.93	6.418
767.11	6.431
767.29	6.445
767.47	6.448
767.65	6.466
767.83	6.471
768.01	6.484
768.19	6.473
768.37	6.499
768.55	6.492
768.73	6.506
768.91	6.512
769.09	6.525
769.27	6.531
769.45	6.542
769.63	6.554
769.81	6.569
769.99	6.578
770.17	6.610
770.35	6.615
770.53	6.620
770.71	6.653
770.89	6.662
771.07	6.662
771.25	6.674
771.43	6.679
771.61	6.674
771.79	6.708
771.97	6.710
772.15	6.716
772.33	6.720
772.51	6.743
772.69	6.718
772.87	6.714
773.05	6.729
773.23	6.730
773.41	6.743
773.59	6.748
773.77	6.752
773.95	6.763
774.13	6.758
774.31	6.776
774.49	6.776
774.67	6.799
774.85	6.843
775.03	6.834
775.21	6.857
775.39	6.869
775.57	6.903
775.75	6.888
775.93	6.901
776.11	6.921
776.29	6.945
776.47	6.959
776.65	6.974
776.83	6.968
777.01	6.980
777.19	6.980
777.37	6.972
777.55	6.962
777.73	6.994
777.91	6.987
778.09	6.990
778.27	6.979
778.45	6.986
778.62	6.985
778.80	6.985
778.98	7.009
779.16	7.017
779.34	7.051
779.52	7.077
779.70	7.084
779.88	7.118
780.06	7.126
780.24	7.140
780.42	7.129
780.60	7.136
780.78	7.154
780.96	7.172
781.14	7.189
781.31	7.186
781.49	7.201
781.67	7.192
781.85	7.208
782.03	7.237
782.21	7.256
782.39	7.295
782.57	7.314
782.75	7.329
782.93	7.326
783.11	7.343
783.28	7.364
783.46	7.371
783.64	7.420
783.82	7.428
784.00	7.427
784.18	7.436
784.36	7.447
784.54	7.454
784.72	7.462
784.89	7.493
785.07	7.514
785.25	7.512
785.43	7.517
785.61	7.509
785.79	7.508
785.97	7.526
786.15	7.539
786.33	7.542
786.50	7.553
786.68	7.559
786.86	7.566
787.04	7.555
787.22	7.569
787.40	7.596
787.58	7.600
787.75	7.625
787.93	7.614
788.11	7.626
788.29	7.656
788.47	7.672
788.65	7.706
788.83	7.694
789.00	7.737
789.18	7.761
789.36	7.764
789.54	7.764
789.72	7.766
789.90	7.806
790.07	7.818
790.25	7.808
790.43	7.830
790.61	7.823
790.79	7.859
790.97	7.842
791.14	7.865
791.32	7.861
791.50	7.893
791.68	7.917
791.86	7.924
792.04	7.925
792.21	7.930
792.39	7.936
792.57	7.954
792.75	7.957
792.93	7.983
793.10	7.988
793.28	8.026
793.46	8.020
793.64	8.025
793.82	8.042
794.00	8.051
794.17	8.095
794.35	8.107
794.53	8.105
794.71	8.112
794.89	8.126
795.06	8.120
795.24	8.117
795.42	8.154
795.60	8.164
795.77	8.179
795.95	8.182
796.13	8.180
796.31	8.194
796.49	8.198
796.66	8.226
796.84	8.220
797.02	8.243
797.20	8.269
797.37	8.244
797.55	8.266
797.73	8.278
797.91	8.315
798.09	8.315
798.26	8.315
798.44	8.342
798.62	8.344
798.80	8.363
798.97	8.381
799.15	8.384
799.33	8.422
799.51	8.422
799.68	8.429
799.86	8.400
800.04	8.417
800.22	8.420
800.39	8.437
800.57	8.453
800.75	8.467
800.93	8.465
801.10	8.453
801.28	8.460
801.46	8.468
801.63	8.469
801.81	8.514
801.99	8.526
802.17	8.558
802.34	8.565
802.52	8.571
802.70	8.591
802.88	8.608
803.05	8.638
803.23	8.636
803.41	8.639
803.58	8.628
803.76	8.625
803.94	8.628
804.12	8.593
804.29	8.618
804.47	8.623
804.65	8.636
804.82	8.647
805.00	8.644
805.18	8.674
805.35	8.710
805.53	8.753
805.71	8.777
805.89	8.808
806.06	8.829
806.24	8.823
806.42	8.804
806.59	8.808
806.77	8.791
806.95	8.800
807.12	8.798
807.30	8.790
807.48	8.773
807.65	8.762
807.83	8.752
808.01	8.771
808.18	8.759
808.36	8.795
808.54	8.766
808.71	8.776
808.89	8.780
809.07	8.774
809.24	8.757
809.42	8.770
809.60	8.783
809.77	8.786
809.95	8.834
810.13	8.865
810.30	8.892
810.48	8.899
810.66	8.938
810.83	8.933
811.01	8.943
811.19	8.976
811.36	8.951
811.54	8.958
811.71	8.954
811.89	8.941
812.07	8.933
812.24	8.916
812.42	8.931
812.60	8.922
812.77	8.939
812.95	8.941
813.13	8.948
813.30	8.970
813.48	8.991
813.65	9.022
813.83	9.015
814.01	9.019
814.18	9.025
814.36	9.043
814.53	9.024
814.71	9.028
814.89	9.078
815.06	9.066
815.24	9.069
815.41	9.054
815.59	9.042
815.77	9.048
815.94	9.063
816.12	9.091
816.29	9.097
816.47	9.111
816.65	9.120
816.82	9.076
817.00	9.089
817.17	9.145
817.35	9.174
817.53	9.168
817.70	9.211
817.88	9.211
818.05	9.190
818.23	9.228
818.40	9.256
818.58	9.293
818.76	9.321
818.93	9.308
819.11	9.253
819.28	9.230
819.46	9.278
819.63	9.251
819.81	9.262
819.99	9.283
820.16	9.262
820.34	9.270
820.51	9.217
820.69	9.200
820.86	9.229
821.04	9.290
821.21	9.276
821.39	9.230
821.57	9.257
821.74	9.273
821.92	9.269
822.09	9.254
822.27	9.231
822.44	9.283
822.62	9.302
822.79	9.256
822.97	9.234
823.14	9.304
823.32	9.301
823.49	9.272
823.67	9.275
823.84	9.258
824.02	9.267
824.19	9.296
824.37	9.289
824.54	9.301
824.72	9.329
824.90	9.343
825.07	9.308
825.25	9.320
825.42	9.298
825.60	9.267
825.77	9.271
825.95	9.273
826.12	9.267
826.30	9.263
826.47	9.229
826.65	9.215
826.82	9.239
827.00	9.251
827.17	9.250
827.35	9.258
827.52	9.290
827.69	9.322
827.87	9.313
828.04	9.287
828.22	9.245
828.39	9.273
828.57	9.292
828.74	9.265
828.92	9.248
829.09	9.285
829.27	9.272
829.44	9.244
829.62	9.246
829.79	9.286
829.97	9.316
830.14	9.372
830.32	9.403
830.49	9.464
830.66	9.455
830.84	9.452
831.01	9.464
831.19	9.503
831.36	9.526
831.54	9.504
831.71	9.507
831.89	9.494
832.06	9.514
832.24	9.509
832.41	9.485
832.58	9.542
832.76	9.500
832.93	9.465
833.11	9.461
833.28	9.469
833.46	9.476
833.63	9.467
833.80	9.464
833.98	9.462
834.15	9.440
834.33	9.404
834.50	9.415
834.68	9.506
834.85	9.571
835.02	9.589
835.20	9.595
835.37	9.657
835.55	9.665
835.72	9.686
835.89	9.692
836.07	9.706
836.24	9.719
836.42	9.683
836.59	9.647
836.76	9.588
836.94	9.601
837.11	9.569
837.29	9.531
837.46	9.555
837.63	9.592
837.81	9.597
837.98	9.586
838.16	9.607
838.33	9.595
838.50	9.600
838.68	9.605
838.85	9.581
839.02	9.583
839.20	9.574
839.37	9.529
839.55	9.483
839.72	9.478
839.89	9.498
840.07	9.496
840.24	9.515
840.41	9.520
840.59	9.526
840.76	9.559
840.93	9.611
841.11	9.627
841.28	9.621
841.46	9.629
841.63	9.604
841.80	9.591
841.98	9.617
842.15	9.600
842.32	9.637
842.50	9.634
842.67	9.614
842.84	9.582
843.02	9.602
843.19	9.643
843.36	9.656
843.54	9.676
843.71	9.710
843.88	9.701
844.06	9.702
844.23	9.657
844.40	9.693
844.58	9.726
844.75	9.724
844.92	9.678
845.10	9.693
845.27	9.693
845.44	9.685
845.61	9.670
845.79	9.689
845.96	9.720
846.13	9.764
846.31	9.757
846.48	9.763
846.65	9.803
846.83	9.842
847.00	9.835
847.17	9.833
847.34	9.826
847.52	9.825
847.69	9.765
847.86	9.735
848.04	9.712
848.21	9.700
848.38	9.689
848.55	9.668
848.73	9.659
848.90	9.650
849.07	9.654
849.25	9.676
849.42	9.700
849.59	9.767
849.76	9.817
849.94	9.817
850.11	9.836
850.28	9.859
850.45	9.876
850.63	9.885
850.80	9.902
850.97	9.864
851.15	9.851
851.32	9.885
851.49	9.887
851.66	9.901
851.84	9.885
852.01	9.856
852.18	9.863
852.35	9.836
852.53	9.843
852.70	9.802
852.87	9.831
853.04	9.843
853.21	9.795
853.39	9.792
853.56	9.766
853.73	9.789
853.90	9.791
854.08	9.695
854.25	9.751
854.42	9.778
854.59	9.788
854.77	9.872
854.94	9.925
855.11	9.914
855.28	9.914
855.45	9.865
855.63	9.911
855.80	9.971
855.97	10.059
856.14	10.050
856.31	10.039
856.49	10.051
856.66	10.064
856.83	9.999
857.00	10.032
857.17	10.015
857.35	10.062
857.52	10.045
857.69	10.027
857.86	9.991
858.03	9.950
858.21	9.931
858.38	9.933
858.55	9.848
858.72	9.858
858.89	9.847
859.06	9.857
859.24	9.873
859.41	9.881
859.58	9.883
859.75	9.901
859.92	9.953
860.10	9.908
860.27	9.923
860.44	9.991
860.61	9.949
860.78	9.941
860.95	9.929
861.12	9.917
861.30	9.892
861.47	9.863
861.64	9.870
861.81	9.831
861.98	9.877
862.15	9.884
862.33	9.842
862.50	9.885
862.67	9.873
862.84	9.897
863.01	9.906
863.18	9.864
863.35	9.901
863.53	9.893
863.70	9.938
863.87	9.888
864.04	9.883
864.21	9.863
864.38	9.881
864.55	9.909
864.72	9.941
864.90	9.906
865.07	10.014
865.24	9.982
865.41	9.988
865.58	9.971
865.75	9.995
865.92	9.981
866.09	10.006
866.26	10.068
866.44	10.070
866.61	10.097
866.78	10.131
866.95	10.097
867.12	10.102
867.29	10.074
867.46	10.059
867.63	10.131
867.80	10.171
867.97	10.194
868.14	10.173
868.32	10.200
868.49	10.159
868.66	10.121
868.83	10.169
869.00	10.172
869.17	10.200
869.34	10.158
869.51	10.095
869.68	10.097
869.85	10.092
870.02	10.081
870.19	10.056
870.36	10.021
870.54	10.081
870.71	10.041
870.88	10.103
871.05	10.150
871.22	10.202
871.39	10.168
871.56	10.119
871.73	10.146
871.90	10.128
872.07	10.104
872.24	10.145
872.41	10.085
872.58	10.056
872.75	9.995
872.92	9.961
873.09	9.954
873.26	10.021
873.43	10.045
873.60	9.969
873.77	9.986
873.94	10.039
874.11	10.073
874.28	10.112
874.46	10.111
874.63	10.132
874.80	10.112
874.97	10.150
875.14	10.132
875.31	10.170
875.48	10.223
875.65	10.185
875.82	10.248
875.99	10.199
876.16	10.224
876.33	10.275
876.50	10.308
876.67	10.306
876.84	10.306
877.01	10.353
877.18	10.333
877.35	10.353
877.52	10.378
877.69	10.299
877.86	10.299
878.03	10.303
878.20	10.288
878.37	10.307
878.54	10.322
878.71	10.330
878.88	10.283
879.04	10.265
879.21	10.227
879.38	10.249
879.55	10.270
879.72	10.298
879.89	10.265
880.06	10.252
880.23	10.199
880.40	10.215
880.57	10.235
880.74	10.292
880.91	10.315
881.08	10.371
881.25	10.412
881.42	10.417
881.59	10.400
881.76	10.349
881.93	10.363
882.10	10.357
882.27	10.321
882.44	10.282
882.61	10.258
882.78	10.257
882.94	10.224
883.11	10.159
883.28	10.191
883.45	10.261
883.62	10.257
883.79	10.246
883.96	10.213
884.13	10.247
884.30	10.251
884.47	10.277
884.64	10.247
884.81	10.218
884.98	10.237
885.14	10.209
885.31	10.125
885.48	10.222
885.65	10.193
885.82	10.215
885.99	10.218
886.16	10.235
886.33	10.250
886.50	10.300
886.67	10.291
886.84	10.326
887.00	10.346
887.17	10.339
887.34	10.316
887.51	10.324
887.68	10.360
887.85	10.377
888.02	10.404
888.19	10.336
888.36	10.338
888.52	10.366
888.69	10.317
888.86	10.237
889.03	10.253
889.20	10.284
889.37	10.243
889.54	10.222
889.71	10.150
889.87	10.120
890.04	10.157
890.21	10.165
890.38	10.090
890.55	10.100
890.72	10.077
890.89	10.059
891.05	10.066
891.22	10.107
891.39	10.082
891.56	10.102
891.73	10.020
891.90	10.750
892.06	10.003
892.23	9.882
892.40	9.886
>>>>>End Processed Spectral Data<<<<<
